File: Ramma/Dados/RAMAN_Dados/MoS2.txt
44.56800	1307.30
49.36370	1303.40
54.15520	1308.60
58.94250	1311.90
63.72580	1321.90
68.50490	1352.60
73.27980	1371.60
78.05070	1382.40
82.81740	1385.30
87.58000	1370.90
92.33860	1395.00
97.09300	1375.40
101.843	1383.80
106.59	1405.20
111.332	1392.40
116.07	1405.90
120.804	1408.50
125.534	1439.90
130.26	1447.50
134.982	1461.70
139.7	1478.30
144.414	1487.30
149.124	1505.80
153.83	1492.50
158.532	1475.50
163.229	1458.70
167.923	1458.50
172.613	1473.80
177.299	1501.70
181.981	1481.80
186.659	1500.80
191.333	1502.10
196.003	1470.60
200.669	1458.40
205.332	1468.20
209.99	1476.70
214.644	1461.30
219.295	1467.50
223.941	1456.50
228.584	1457.30
233.223	1441.60
237.857	1441.40
242.488	1431.60
247.116	1432.10
251.739	1431.20
256.358	1429.10
260.974	1419.10
265.585	1428.90
270.193	1417.70
274.797	1425.90
279.397	1421.30
283.994	1430.20
288.586	1427.20
293.175	1418.30
297.76	1419.60
302.341	1429.50
306.918	1429.10
311.491	1436.10
316.061	1436.30
320.627	1441.70
325.189	1447.10
329.748	1454.40
334.302	1464.90
338.853	1464.90
343.401	1477.30
347.944	1477.40
352.484	1489.40
357.02	1518.80
361.552	1522.60
366.08	1559.30
370.605	1658.40
375.127	2004.10
379.644	4638.90
384.158	2142.30
388.668	1642.40
393.174	1672.30
397.677	1857.90
402.176	2802.30
406.672	9349.30
411.163	2618.20
415.652	1789.40
420.136	1702.00
424.617	1668.10
429.094	1676.50
433.568	1685.90
438.038	1722.50
442.504	1775.00
446.967	1883.70
451.426	1901.40
455.882	1811.50
460.334	1782.20
464.783	1738.20
469.227	1538.80
473.669	1451.30
478.107	1430.10
482.541	1429.20
486.972	1428.20
491.399	1426.20
495.822	1438.80
500.242	1442.10
504.659	1440.50
509.072	1442.50
513.482	1444.70
517.888	1451.90
522.29	1453.80
526.689	1466.10
531.085	1468.50
535.477	1460.80
539.865	1469.90
544.25	1481.00
548.632	1494.20
553.01	1500.70
557.385	1543.80
561.756	1549.40
566.124	1596.80
570.489	1589.30
574.85	1546.70
579.207	1565.00
583.561	1593.10
587.912	1602.30
592.259	1622.80
596.603	1625.20
600.944	1515.80
605.281	1495.10
609.615	1483.10
613.945	1493.30
618.272	1484.30
622.595	1475.10
626.916	1486.50
631.233	1477.60
635.546	1470.10
639.856	1452.00
644.163	1418.30
648.467	1402.90
652.767	1389.20
657.064	1389.70
661.357	1392.50
665.648	1403.80
669.934	1397.90
674.218	1401.50
678.498	1393.40
682.775	1396.80
687.049	1393.50
691.32	1394.10
695.587	1416.50
699.851	1430.40
704.111	1431.70
708.369	1426.50
712.623	1413.10
716.874	1429.30
721.121	1446.00
725.366	1445.20
729.607	1450.10
733.845	1474.70
738.079	1481.90
742.311	1500.10
746.539	1511.50
750.764	1517.30
754.986	1489.60
759.205	1476.20
763.42	1446.40
767.633	1429.30
771.842	1442.90
776.048	1473.40
780.25	1454.10
784.45	1438.70
788.646	1419.20
792.84	1399.40
797.03	1393.20
801.217	1402.80
805.401	1407.80
809.581	1430.10
813.759	1431.70
817.933	1426.30
822.105	1409.80
826.273	1405.30
830.438	1386.70
834.6	1377.30
838.759	1373.90
842.914	1377.10
847.067	1381.50
851.217	1369.00
855.363	1379.80
859.507	1370.20
863.647	1364.50
867.784	1364.10
871.919	1363.40
876.05	1360.50
880.178	1367.20
884.303	1362.10
888.425	1357.60
892.544	1366.20
896.66	1369.30
900.773	1368.50
904.883	1358.40
908.99	1360.70
913.094	1362.50
917.195	1360.30
921.293	1362.90
925.388	1357.30
929.479	1363.20
933.568	1368.90
937.654	1358.40
941.737	1354.90
945.817	1353.90
949.894	1357.40
953.968	1356.90
958.039	1360.00
962.107	1358.00
966.173	1357.10
970.235	1358.20
974.294	1355.90
978.35	1360.10
982.404	1351.70
986.454	1357.50
990.502	1357.60
994.546	1350.80
998.588	1360.20
1002.63	1352.80
1006.66	1353.60
1010.7	1351.60
1014.73	1349.50
1018.75	1346.20
1022.78	1348.60
1026.8	1352.40
1030.82	1346.20
1034.83	1345.30
1038.85	1347.20
1042.86	1346.30
1046.86	1346.50
1050.87	1339.70
1054.87	1343.20
1058.87	1342.20
1062.86	1337.30
1066.86	1344.60
1070.85	1337.70
1074.83	1337.20
1078.82	1342.60
1082.8	1339.40
1086.78	1343.70
1090.75	1336.70
1094.73	1342.00
1098.7	1335.40
1102.66	1337.30
1106.63	1338.00
1110.59	1339.60
1114.55	1339.30
1118.51	1337.80
1122.46	1338.80
1126.41	1383.40
1130.36	1330.70
1134.3	1331.10
1138.25	1337.80
1142.19	1336.80
1146.12	1338.20
1150.06	1351.80
1153.99	1340.40
1157.92	1333.70
1161.84	1331.00
1165.77	1333.60
1169.69	1334.90
1173.6	1334.10
1177.52	1335.10
1181.43	1336.00
1185.34	1336.00
1189.25	1331.00
1193.15	1333.50
1195.1	1332.40